REQUEST         124001   20240609     135847   20240529          3    0  0    0
ENTRY            30092   20150407   20150604   20150513       316930092000    1
SUBENT        30092001   20150407   20150604   20150513       316930092001    1
BIB                 12         42                                 30092001    2
INSTITUTE  (3INDTRM)                                              30092001    3
REFERENCE  (C,66PARIS,1,233,1966) inverse reaction, tables        30092001    4
           (J,PR,156,1187,1967)cross section + width,tbls+graphs  30092001    5
           (R,AEET-264,1966) same as 66Paris,1,233 1966           30092001    6
           (P,AEET-228,1965) table superseded                     30092001    7
           (P,AEET-267,1966) peak cross section and widths.       30092001    8
AUTHOR     (A.S.Divatia, K.K.Sekharan, M.K.Mehta, S.S.Kerekate,   30092001    9
            K.K.Nambiar)                                          30092001   10
TITLE      O-16(n,alfa)C-13 cross-sections from the               30092001   11
           C-13(alfa,n)O-16  reaction                             30092001   12
FACILITY   (VDG) Van de Graaff                                    30092001   13
            Relative error in incident alfa-particle energy       30092001   14
            is estimated to be +-3 keV whereas incident beam was  30092001   15
            monitored by current integrator with an accuracy      30092001   16
            of +-2%                                               30092001   17
SAMPLE     Approximately 30% enriched C-13 target deposited       30092001   18
           on 0.25 mm - thick tantalum backing, target thickness  30092001   19
           =31. keV for alfa particles of 3.1 MeV energy          30092001   20
METHOD     According to the reciprocity theorem the actually      30092001   21
           measured C-13(alfa,n)O-16 cross section is converted   30092001   22
           to the O-16(n,alfa)C-13 cross section                  30092001   23
DETECTOR   (BF3) 4 Pi geometry neutron counter consisting of a    30092001   24
            bf3 counter-paraffin assembly, efficiency in percent  30092001   25
            versus neutron energy (fig.1 of Phys.Rev. 156, 1187   30092001   26
            (1967) )  obtained from measurement of neutron yields 30092001   27
            from Li-7(p,n)Be-7 reaction                           30092001   28
            Reaction 3-Li-7(p,n)4-Be-7 for detector calibration   30092001   29
PART-DET   (N) neutrons, C-13(alfa,n)O-16 reaction measured       30092001   30
ANALYSIS   (DTBAL) inverse reaction measured                      30092001   31
ERR-ANALYS The factors contributing to the error in the cross     30092001   32
           section are the following                              30092001   33
           1.) The number of C-13 nuclei                          30092001   34
           2.) The error in the alfa current integration          30092001   35
           3.) The error in the counter efficiency (estimated     30092001   36
               to be 12%)                                         30092001   37
HISTORY    (19670223R)  letter from M.Balakrishnan                30092001   38
           (19670912C)  compiled into Dastar                      30092001   39
           (19701216T)  converted from Dastar-00222               30092001   40
           (19701230A)  Subents 009 and 010 added.                30092001   41
           (20080215S) Dataset was restored.                      30092001   42
           (20150402A) VS. HISTORY added to 001.                  30092001   43
                       002, 003: SF5=PAR, SF9=DERIV, E-LVL added. 30092001   44
ENDBIB              42                                            30092001   45
NOCOMMON             0          0                                 30092001   46
ENDSUBENT           45                                            3009200199999
SUBENT        30092002   20150407   20150604   20150513       316930092002    1
BIB                  5         14                                 30092002    2
REACTION   (8-O-16(N,A)6-C-13,PAR,SIG,,,DERIV)                    30092002    3
COMMENT    Peak cross sections given in accession-number 30092.00330092002    4
STATUS     (TABLE) data from private communication from           30092002    5
            M.Balakrishnan, 23 feb 67                             30092002    6
           (DEP,D6089002) C-13(alfa,n)O-16 data                   30092002    7
HISTORY    (19670223R)  letter from M.Balakrishnan                30092002    8
           (19670912C)  compiled into Dastar                      30092002    9
           (19701216T)  converted from Dastar-00222               30092002   10
           (20080215S) Dataset was restored.                      30092002   11
           (20150402A) VS. SF5=PAR, SF9=DERIV, E-LVL added.       30092002   12
ERR-ANALYS (DATA-ERR) Overall  error of cross section estimated to30092002   13
           be 20% according to Phys.Rev. Vol 156,1187(1967)       30092002   14
           whereas in earlier publications the error is estimated 30092002   15
           to be 15% only                                         30092002   16
ENDBIB              14                                            30092002   17
COMMON               2          3                                 30092002   18
DATA-ERR   E-LVL                                                  30092002   19
PER-CENT   MEV                                                    30092002   20
 2.0000E+01   0.                                                  30092002   21
ENDCOMMON            3                                            30092002   22
DATA                 2        406                                 30092002   23
EN         DATA                                                   30092002   24
MEV        MB                                                     30092002   25
3.916      15.6                                                   30092002   26
3.921      16.3                                                   30092002   27
3.925      16.8                                                   30092002   28
3.930      17.4                                                   30092002   29
3.935      18.7                                                   30092002   30
3.939      19.4                                                   30092002   31
3.943      20.5                                                   30092002   32
3.948      21.6                                                   30092002   33
3.953      22.8                                                   30092002   34
3.958      23.9                                                   30092002   35
3.963      24.7                                                   30092002   36
3.968      26.6                                                   30092002   37
3.973      29.1                                                   30092002   38
3.978      29.5                                                   30092002   39
3.982      31.2                                                   30092002   40
3.986      33.4                                                   30092002   41
3.991      35.9                                                   30092002   42
3.996      37.1                                                   30092002   43
4.001      39.1                                                   30092002   44
4.006      42.5                                                   30092002   45
4.011      45.1                                                   30092002   46
4.016      47.9                                                   30092002   47
4.021      50.9                                                   30092002   48
4.025      53.2                                                   30092002   49
4.030      56.2                                                   30092002   50
4.035      58.9                                                   30092002   51
4.040      61.1                                                   30092002   52
4.045      63.4                                                   30092002   53
4.050      63.1                                                   30092002   54
4.055      62.6                                                   30092002   55
4.060      61.7                                                   30092002   56
4.064      60.7                                                   30092002   57
4.069      59.2                                                   30092002   58
4.074      58.2                                                   30092002   59
4.079      57.7                                                   30092002   60
4.084      55.6                                                   30092002   61
4.089      55.5                                                   30092002   62
4.094      54.1                                                   30092002   63
4.099      52.8                                                   30092002   64
4.104      52.3                                                   30092002   65
4.109      52.3                                                   30092002   66
4.114      52.4                                                   30092002   67
4.119      57.3                                                   30092002   68
4.124      59.3                                                   30092002   69
4.129      61.6                                                   30092002   70
4.134      66.4                                                   30092002   71
4.139      70.7                                                   30092002   72
4.144      76.2                                                   30092002   73
4.149      81.8                                                   30092002   74
4.154      88.2                                                   30092002   75
4.159      94.3                                                   30092002   76
4.164      99.7                                                   30092002   77
4.169      103.2                                                  30092002   78
4.174      105.8                                                  30092002   79
4.179      106.5                                                  30092002   80
4.184      107.2                                                  30092002   81
4.189      105.9                                                  30092002   82
4.195      103.5                                                  30092002   83
4.199      99.3                                                   30092002   84
4.205      96.0                                                   30092002   85
4.210      91.7                                                   30092002   86
4.216      88.3                                                   30092002   87
4.221      85.0                                                   30092002   88
4.226      83.1                                                   30092002   89
4.231      81.0                                                   30092002   90
4.237      81.4                                                   30092002   91
4.241      79.0                                                   30092002   92
4.247      77.9                                                   30092002   93
4.252      76.0                                                   30092002   94
4.257      76.3                                                   30092002   95
4.262      75.5                                                   30092002   96
4.267      76.6                                                   30092002   97
4.272      78.3                                                   30092002   98
4.277      80.5                                                   30092002   99
4.283      83.4                                                   30092002  100
4.288      87.2                                                   30092002  101
4.294      90.9                                                   30092002  102
4.299      94.7                                                   30092002  103
4.305      96.4                                                   30092002  104
4.310      98.0                                                   30092002  105
4.315      101.9                                                  30092002  106
4.320      99.1                                                   30092002  107
4.326      97.2                                                   30092002  108
4.331      92.5                                                   30092002  109
4.336      86.1                                                   30092002  110
4.341      80.8                                                   30092002  111
4.346      76.5                                                   30092002  112
4.351      72.1                                                   30092002  113
4.357      64.4                                                   30092002  114
4.362      58.0                                                   30092002  115
4.367      52.8                                                   30092002  116
4.372      49.3                                                   30092002  117
4.377      45.9                                                   30092002  118
4.382      42.6                                                   30092002  119
4.388      40.6                                                   30092002  120
4.393      38.4                                                   30092002  121
4.398      36.4                                                   30092002  122
4.404      34.8                                                   30092002  123
4.409      33.3                                                   30092002  124
4.414      32.2                                                   30092002  125
4.419      31.2                                                   30092002  126
4.424      30.6                                                   30092002  127
4.429      29.5                                                   30092002  128
4.434      29.5                                                   30092002  129
4.439      31.3                                                   30092002  130
4.445      32.0                                                   30092002  131
4.450      35.3                                                   30092002  132
4.455      45.5                                                   30092002  133
4.461      54.9                                                   30092002  134
4.467      64.8                                                   30092002  135
4.473      67.4                                                   30092002  136
4.478      61.5                                                   30092002  137
4.483      54.9                                                   30092002  138
4.488      46.2                                                   30092002  139
4.493      39.5                                                   30092002  140
4.498      35.6                                                   30092002  141
4.503      31.8                                                   30092002  142
4.509      30.5                                                   30092002  143
4.514      32.7                                                   30092002  144
4.519      48.0                                                   30092002  145
4.524      65.2                                                   30092002  146
4.530      70.8                                                   30092002  147
4.535      65.0                                                   30092002  148
4.541      56.1                                                   30092002  149
4.547      43.7                                                   30092002  150
4.552      36.6                                                   30092002  151
4.558      31.8                                                   30092002  152
4.563      29.7                                                   30092002  153
4.568      28.1                                                   30092002  154
4.573      27.9                                                   30092002  155
4.579      30.9                                                   30092002  156
4.584      37.5                                                   30092002  157
4.590      51.8                                                   30092002  158
4.595      59.1                                                   30092002  159
4.601      60.4                                                   30092002  160
4.606      51.3                                                   30092002  161
4.612      47.4                                                   30092002  162
4.617      56.3                                                   30092002  163
4.624      100.0                                                  30092002  164
4.629      130.9                                                  30092002  165
4.635      131.6                                                  30092002  166
4.640      118.3                                                  30092002  167
4.646      91.4                                                   30092002  168
4.651      66.4                                                   30092002  169
4.656      51.9                                                   30092002  170
4.662      39.6                                                   30092002  171
4.668      31.8                                                   30092002  172
4.674      28.7                                                   30092002  173
4.680      27.2                                                   30092002  174
4.686      26.2                                                   30092002  175
4.692      24.8                                                   30092002  176
4.698      23.7                                                   30092002  177
4.703      26.2                                                   30092002  178
4.709      26.3                                                   30092002  179
4.715      26.3                                                   30092002  180
4.721      25.8                                                   30092002  181
4.727      25.8                                                   30092002  182
4.733      26.1                                                   30092002  183
4.739      27.3                                                   30092002  184
4.745      25.5                                                   30092002  185
4.751      27.6                                                   30092002  186
4.757      26.5                                                   30092002  187
4.764      27.2                                                   30092002  188
4.770      28.8                                                   30092002  189
4.776      28.8                                                   30092002  190
4.782      31.6                                                   30092002  191
4.788      32.4                                                   30092002  192
4.794      34.3                                                   30092002  193
4.800      35.2                                                   30092002  194
4.806      39.9                                                   30092002  195
4.811      54.7                                                   30092002  196
4.817      61.8                                                   30092002  197
